Time,Temperature,Mass
[s],[K],[mg]
0.00,298.33,5.50E+00
2.00,298.33,5.51E+00
4.00,298.33839,5.48E+00
6.00,298.34741,5.45E+00
8.00,298.35802,5.44E+00
10.00,298.3747,5.43E+00
12.00,298.40133,5.43E+00
14.00,298.43741,5.43E+00
16.00,298.49239,5.43E+00
18.00,298.5673,5.43E+00
20.00,298.6668,5.43E+00
22.00,298.7912,5.43E+00
24.00,298.9429,5.43E+00
26.00,299.1249,5.43E+00
28.00,299.34043,5.43E+00
30.00,299.5878,5.43E+00
32.00,299.87375,5.44E+00
34.00,300.19541,5.44E+00
36.00,300.55643,5.44E+00
38.00,300.95107,5.44E+00
40.00,301.3823,5.44E+00
42.00,301.85225,5.43901985
44.00,302.36292,5.44870975
46.00,302.905,5.45435
48.00,303.48133,5.45332975
50.00,304.08731,5.43484975
52.00,304.72177,5.4353002
54.00,305.38497,5.43394005
56.00,306.0729,5.43811015
58.00,306.78866,5.4401402
60.00,307.52859,5.4416098
62.00,308.28897,5.44228025
64.00,309.07279,5.4416098
66.00,309.87134,5.43834005
68.00,310.68579,5.44082
70.00,311.51541,5.44351995
72.00,312.35856,5.44340995
74.00,313.21371,5.44430975
76.00,314.0768,5.44318995
78.00,314.94792,5.44262015
80.00,315.82395,5.44049
82.00,316.70538,5.44049
84.00,317.5912,5.44071
86.00,318.48011,5.43834005
88.00,319.36866,5.43923985
90.00,320.25913,5.43811015
92.00,321.14626,5.43767015
94.00,322.03364,5.43755025
96.00,322.91541,5.43528975
98.00,323.79698,5.43394005
100.00,324.67338,5.43304025
102.00,325.54562,5.4325898
104.00,326.41267,5.43293025
106.00,327.27761,5.43158
108.00,328.13679,5.43260025
110.00,328.98967,5.43260025
112.00,329.83479,5.43260025
114.00,330.67513,5.4312401
116.00,331.50869,5.4312401
118.00,332.33882,5.43191
120.00,333.1669,5.43191
122.00,333.9851,5.43191
124.00,334.79621,5.4309002
126.00,335.59934,5.43044975
128.00,336.40321,5.42909015
130.00,337.20105,5.43044975
132.00,337.99369,5.42910005
134.00,338.78066,5.4274099
136.00,339.56257,5.4263902
138.00,340.33939,5.42503995
140.00,341.11172,5.4260602
142.00,341.87893,5.42571975
144.00,342.63848,5.42503995
146.00,343.39261,5.42369025
148.00,344.14356,5.42369025
150.00,344.89328,5.4233498
152.00,345.64084,5.42369025
154.00,346.38226,5.4223301
156.00,347.12128,5.42097985
158.00,347.85672,5.41997005
160.00,348.58957,5.41963015
162.00,349.3192,5.41963015
164.00,350.0472,5.41963015
166.00,350.77205,5.41963015
168.00,351.49664,5.42030005
170.00,352.21807,5.42097985
172.00,352.9388,5.41963015
174.00,353.65869,5.42097985
176.00,354.37615,5.42097985
178.00,355.09566,5.42097985
180.00,355.81318,5.42097985
182.00,356.5308,5.42063995
184.00,357.24656,5.41962025
186.00,357.96043,5.41827
188.00,358.675,5.41827
190.00,359.38884,5.41827
192.00,360.1049,5.41827
194.00,360.8218,5.41827
196.00,361.54018,5.41827
198.00,362.25756,5.4186099
200.00,362.97203,5.4172602
202.00,363.68434,5.4172602
204.00,364.40031,5.4172602
206.00,365.11459,5.4172602
208.00,365.8261,5.4172602
210.00,366.5381,5.41691975
212.00,367.25262,5.41590995
214.00,367.96802,5.41590995
216.00,368.68071,5.41590995
218.00,369.3942,5.41590995
220.00,370.10995,5.4172602
222.00,370.82675,5.4172602
224.00,371.54015,5.4172602
226.00,372.25307,5.4172602
228.00,372.96203,5.4172602
230.00,373.67087,5.41794
232.00,374.37859,5.41794
234.00,375.09,5.41794
236.00,375.80005,5.4172602
238.00,376.50548,5.41658975
240.00,377.20821,5.41501015
242.00,377.9101,5.41501015
244.00,378.6112,5.41501015
246.00,379.31141,5.41702975
248.00,380.01054,5.41702975
250.00,380.71159,5.41702975
252.00,381.40675,5.41668985
254.00,382.10044,5.41668985
256.00,382.79505,5.41501015
258.00,383.48944,5.41568005
260.00,384.18193,5.41568005
262.00,384.87151,5.4170402
264.00,385.56097,5.4170402
266.00,386.24815,5.4170402
268.00,386.93179,5.41635985
270.00,387.6141,5.41635985
272.00,388.29738,5.41568005
274.00,388.98148,5.41568005
276.00,389.66682,5.4170402
278.00,390.3498,5.4170402
280.00,391.02956,5.41963015
282.00,391.70587,5.42492995
284.00,392.38193,5.42142975
286.00,393.05585,5.40756975
288.00,393.7317,5.40554025
290.00,394.40675,5.4079102
292.00,395.08179,5.41173985
294.00,395.75679,5.41106005
296.00,396.43223,5.41139005
298.00,397.10928,5.41172995
300.00,397.78333,5.41172995
302.00,398.45647,5.4130901
304.00,399.1272,5.4130901
306.00,399.80028,5.4130901
308.00,400.47323,5.41172995
310.00,401.14531,5.41172995
312.00,401.81385,5.4130901
314.00,402.48223,5.41343
316.00,403.15085,5.41343
318.00,403.82277,5.41343
320.00,404.49464,5.41343
322.00,405.16749,5.41072015
324.00,405.83882,5.41072015
326.00,406.50861,5.41229975
328.00,407.17903,5.41229975
330.00,407.84874,5.41229975
332.00,408.51851,5.41095005
334.00,409.18818,5.41095005
336.00,409.85882,5.4095998
338.00,410.5279,5.4095998
340.00,411.19569,5.4095998
342.00,411.86385,5.4095998
344.00,412.53415,5.41095005
346.00,413.20439,5.41061015
348.00,413.87516,5.4099298
350.00,414.54357,5.4081302
352.00,415.21325,5.40666005
354.00,415.88354,5.4053098
356.00,416.55492,5.4043
358.00,417.22388,5.40565025
360.00,417.89182,5.40565025
362.00,418.55757,5.40633005
364.00,419.22616,5.40633005
366.00,419.89433,5.4053098
368.00,420.56438,5.4053098
370.00,421.23243,5.40599015
372.00,421.90233,5.40599015
374.00,422.56969,5.4040701
376.00,423.23951,5.40181015
378.00,423.90952,5.40148015
380.00,424.58046,5.4004599
382.00,425.25185,5.4004599
384.00,425.92003,5.4004599
386.00,426.58736,5.3991102
388.00,427.25326,5.3991102
390.00,427.91962,5.3994501
392.00,428.58633,5.39842985
394.00,429.25205,5.39842985
396.00,429.92052,5.39831985
398.00,430.58728,5.39797995
400.00,431.2552,5.3959598
402.00,431.91923,5.3956199
404.00,432.5849,5.3956199
406.00,433.25156,5.3956199
408.00,433.91862,5.3949401
410.00,434.58551,5.3949401
412.00,435.24939,5.39561
414.00,435.91395,5.39561
416.00,436.57859,5.39313995
418.00,437.24408,5.39280005
420.00,437.90797,5.39280005
422.00,438.57031,5.3901001
424.00,439.23249,5.3901001
426.00,439.89415,5.38874985
428.00,440.5562,5.38874985
430.00,441.21708,5.38874985
432.00,441.88005,5.38739025
434.00,442.54393,5.38739025
436.00,443.20715,5.3867198
438.00,443.86903,5.38604
440.00,444.52949,5.38321025
442.00,445.19249,5.38321025
444.00,445.85659,5.38356005
446.00,446.52134,5.38322015
448.00,447.18449,5.38355015
450.00,447.84762,5.38288025
452.00,448.51198,5.3825398
454.00,449.17764,5.3811901
456.00,449.84318,5.37994985
458.00,450.50646,5.3771399
460.00,451.1678,5.37498995
462.00,451.83177,5.37420015
464.00,452.4972,5.3728499
466.00,453.16428,5.37137975
468.00,453.83082,5.37137975
470.00,454.49787,5.37126975
472.00,455.16456,5.3735198
474.00,455.82933,5.37554985
476.00,456.49366,5.368
478.00,457.15974,5.36473025
480.00,457.82608,5.35705995
482.00,458.49433,5.3508598
484.00,459.16329,5.35414
486.00,459.83216,5.3539101
488.00,460.4997,5.3505199
490.00,461.1661,5.34726005
492.00,461.83402,5.34703015
494.00,462.50234,5.34636025
496.00,463.17084,5.3458999
498.00,463.84066,5.34692015
500.00,464.51051,5.34614025
502.00,465.17998,5.34353985
504.00,465.84795,5.3418398
506.00,466.51434,5.33891985
508.00,467.18138,5.3364399
510.00,467.84941,5.3366698
512.00,468.51831,5.3355401
514.00,469.18779,5.3317099
516.00,469.85575,5.3273
518.00,470.5221,5.32560985
520.00,471.18567,5.3234698
522.00,471.85092,5.32348025
524.00,472.5182,5.3219001
526.00,473.18734,5.3187398
528.00,473.85848,5.31647985
530.00,474.52539,5.3169402
532.00,475.19361,5.31558995
534.00,475.86079,5.3125402
536.00,476.52813,5.3091599
538.00,477.19749,5.30757975
540.00,477.86516,5.30600015
542.00,478.53392,5.3046499
544.00,479.20036,5.3033002
546.00,479.86541,5.30272985
548.00,480.53149,5.30172005
550.00,481.20018,5.3003698
552.00,481.8679,5.2987902
554.00,482.53382,5.2961898
556.00,483.19872,5.29248005
558.00,483.86433,5.29034
560.00,484.5301,5.28808005
562.00,485.19226,5.2858201
564.00,485.85605,5.28379005
566.00,486.52144,5.28267025
568.00,487.18792,5.2806402
570.00,487.85205,5.28051975
572.00,488.51743,5.2818799
574.00,489.18425,5.2902201
576.00,489.8532,5.28390995
578.00,490.51898,5.26779
580.00,491.18454,5.2580902
582.00,491.85046,5.2532502
584.00,492.51695,5.25629005
586.00,493.18195,5.25607005
588.00,493.84654,5.25607005
590.00,494.51041,5.25595015
592.00,495.1768,5.2550498
594.00,495.84044,5.25290975
596.00,496.50402,5.25133015
598.00,497.1657,5.24704015
600.00,497.83079,5.24513
602.00,498.49705,5.2444502
604.00,499.1653,5.24388975
606.00,499.83154,5.24164025
608.00,500.49574,5.2400601
610.00,501.16072,5.23859985
612.00,501.82602,5.23713025
614.00,502.49493,5.23567
616.00,503.16,5.2349902
618.00,503.82661,5.23396995
620.00,504.49161,5.23262025
622.00,505.15743,5.23002975
624.00,505.82559,5.2272
626.00,506.49077,5.2272
628.00,507.15838,5.2261902
630.00,507.82362,5.2265301
632.00,508.48913,5.2272099
634.00,509.15415,5.22676
636.00,509.81677,5.2270999
638.00,510.48397,5.22573975
640.00,511.14905,5.22573975
642.00,511.8153,5.22472005
644.00,512.48107,5.2230398
646.00,513.14764,5.2223699
648.00,513.81311,5.22066985
650.00,514.47842,5.21931025
652.00,515.1438,5.21898025
654.00,515.8089,5.21898025
656.00,516.4737,5.21898025
658.00,517.13928,5.21796
660.00,517.8039,5.2176201
662.00,518.46993,5.2176201
664.00,519.13511,5.21626985
666.00,519.8013,5.21626985
668.00,520.46684,5.21626985
670.00,521.13452,5.21492015
672.00,521.80318,5.21492015
674.00,522.47221,5.2128901
676.00,523.13885,5.2122202
678.00,523.80523,5.2122202
680.00,524.47349,5.21119995
682.00,525.14241,5.2125502
684.00,525.81264,5.21220975
686.00,526.47629,5.21220975
688.00,527.14059,5.21086005
690.00,527.80528,5.21086005
692.00,528.47452,5.2095098
694.00,529.14267,5.2095098
696.00,529.80872,5.20747975
698.00,530.47398,5.20646995
700.00,531.13975,5.20545025
702.00,531.80718,5.2044399
704.00,532.47805,5.2041
706.00,533.14787,5.2034301
708.00,533.81677,5.20274975
710.00,534.48192,5.20274975
712.00,535.15018,5.2000399
714.00,535.81849,5.1990202
716.00,536.48954,5.19867975
718.00,537.15941,5.19632025
720.00,537.82746,5.19632025
722.00,538.49497,5.19497
724.00,539.15885,5.19338985
726.00,539.82594,5.19486
728.00,540.49356,5.19350975
730.00,541.16346,5.19350975
732.00,541.83095,5.19079
734.00,542.49769,5.1897802
736.00,543.16516,5.18730025
738.00,543.83164,5.1866298
740.00,544.49746,5.1868498
742.00,545.16131,5.1867398
744.00,545.82761,5.1852702
746.00,546.4939,5.18458985
748.00,547.1639,5.18391995
750.00,547.83246,5.18122
752.00,548.4991,5.17974985
754.00,549.16082,5.17817025
756.00,549.82382,5.1765901
758.00,550.4871,5.17501985
760.00,551.15218,5.1722
762.00,551.81736,5.1718601
764.00,552.48436,5.16949015
766.00,553.15126,5.1666802
768.00,553.8167,5.16565995
770.00,554.48229,5.16576995
772.00,555.14693,5.16509015
774.00,555.81297,5.16318
776.00,556.47835,5.15969025
778.00,557.14454,5.15552015
780.00,557.80943,5.15394
782.00,558.47439,5.15235985
784.00,559.13892,5.1496599
786.00,559.80316,5.14661015
788.00,560.46657,5.14356975
790.00,561.13138,5.14143025
792.00,561.79541,5.13726015
794.00,562.46025,5.13465975
796.00,563.12364,5.13420985
798.00,563.78962,5.13308015
800.00,564.45403,5.1319598
802.00,565.11957,5.1274498
804.00,565.78308,5.12518985
806.00,566.44876,5.1217001
808.00,567.11222,5.1187598
810.00,567.77739,5.1128
812.00,568.44282,5.1092998
814.00,569.10734,5.10625995
816.00,569.76869,5.1028802
818.00,570.4301,5.09801985
820.00,571.09551,5.0943002
822.00,571.76226,5.09058
824.00,572.42571,5.0864099
826.00,573.09066,5.08348005
828.00,573.7562,5.08009975
830.00,574.4238,5.07479995
832.00,575.08954,5.07006995
834.00,575.75251,5.06566995
836.00,576.41607,5.0622902
838.00,577.07874,5.0595798
840.00,577.74394,5.05586015
842.00,578.4101,5.0499999
844.00,579.07744,5.04482
846.00,579.74502,5.0398601
848.00,580.41313,5.0358
850.00,581.07936,5.0322998
852.00,581.74492,5.02802025
854.00,582.40731,5.0230598
856.00,583.07466,5.0184398
858.00,583.73967,5.01517995
860.00,584.40641,5.0089798
862.00,585.07057,5.00604005
864.00,585.73665,5.0035601
866.00,586.40349,4.99746995
868.00,587.0701,4.99150025
870.00,587.73595,4.9846302
872.00,588.40059,4.97503985
874.00,589.06485,4.96423015
876.00,589.72989,4.95081015
878.00,590.39728,4.95137005
880.00,591.06303,4.95711975
882.00,591.73029,4.95058025
884.00,592.39687,4.94291985
886.00,593.0653,4.93694025
888.00,593.73277,4.9318698
890.00,594.39964,4.92972975
892.00,595.06495,4.9229598
894.00,595.7302,4.91395025
896.00,596.39635,4.90594005
898.00,597.06161,4.89907
900.00,597.72652,4.8903899
902.00,598.39354,4.8806901
904.00,599.06023,4.87201
906.00,599.7282,4.86468015
908.00,600.39575,4.8538699
910.00,601.06285,4.8452998
912.00,601.72775,4.8349301
914.00,602.38951,4.82614
916.00,603.05239,4.81497995
918.00,603.71798,4.80234975
920.00,604.38666,4.7892702
922.00,605.05559,4.77934985
924.00,605.72212,4.7670601
926.00,606.38607,4.7572602
928.00,607.0488,4.74237995
930.00,607.71344,4.72985975
932.00,608.37944,4.7175799
934.00,609.04392,4.7124
936.00,609.70754,4.7029301
938.00,610.37129,4.67802005
940.00,611.03903,4.65355
942.00,611.70488,4.6302201
944.00,612.36949,4.61082985
946.00,613.03136,4.60012025
948.00,613.69747,4.58298995
950.00,614.36405,4.5658602
952.00,615.03292,4.5452198
954.00,615.69813,4.52697025
956.00,616.36285,4.50453025
958.00,617.02477,4.48514
960.00,617.68874,4.4659802
962.00,618.3519,4.4523402
964.00,619.01682,4.41502985
966.00,619.68321,4.3751202
968.00,620.34743,4.3482901
970.00,621.01165,4.32789005
972.00,621.67584,4.30072995
974.00,622.34246,4.2762599
976.00,623.00961,4.2442499
978.00,623.67387,4.21652
980.00,624.33792,4.18124025
982.00,625.00072,4.15024005
984.00,625.66321,4.11461985
986.00,626.32631,4.08293985
988.00,626.98974,4.04495025
990.00,627.65446,4.0123699
992.00,628.3202,3.97382975
994.00,628.98577,3.9382101
996.00,629.65166,3.89660975
998.00,630.31538,3.86144
1000.00,630.98018,3.8166898
1002.00,631.64262,3.7748601
1004.00,632.30851,3.72707005
1006.00,632.9713,3.68671985
1008.00,633.63762,3.63825
1010.00,634.3007,3.59574985
1012.00,634.9658,3.5470501
1014.00,635.63062,3.4981298
1016.00,636.29762,3.44402025
1018.00,636.96323,3.3983598
1020.00,637.63028,3.33207985
1022.00,638.29561,3.28608995
1024.00,638.96318,3.25318015
1026.00,639.62831,3.2068498
1028.00,640.29408,3.14417015
1030.00,640.95874,3.09073985
1032.00,641.62341,3.0323502
1034.00,642.28839,2.9790299
1036.00,642.95402,2.91140025
1038.00,643.62025,2.86315975
1040.00,644.28739,2.80995
1042.00,644.95505,2.7588902
1044.00,645.62351,2.6955401
1046.00,646.29065,2.64379995
1048.00,646.95806,2.58247
1050.00,647.62515,2.52621985
1052.00,648.2939,2.46218995
1054.00,648.96261,2.40796985
1056.00,649.6312,2.34472975
1058.00,650.30012,2.2913099
1060.00,650.9679,2.23009985
1062.00,651.63498,2.17745
1064.00,652.29867,2.11500025
1066.00,652.96459,2.06078015
1068.00,653.63379,1.99810985
1070.00,654.30433,1.9446801
1072.00,654.97438,1.88503975
1074.00,655.64265,1.8308301
1076.00,656.31049,1.76973005
1078.00,656.98023,1.71957005
1080.00,657.64964,1.66445015
1082.00,658.32077,1.61293
1084.00,658.99125,1.5546498
1086.00,659.66185,1.50144995
1088.00,660.33064,1.44304985
1090.00,660.99728,1.39694995
1092.00,661.66513,1.3394502
1094.00,662.33459,1.2801701
1096.00,663.00557,1.2174899
1098.00,663.67487,1.1663102
1100.00,664.34302,1.10759
1102.00,665.01282,1.05754
1104.00,665.68234,1.0021902
1106.00,666.35126,0.9566502
1108.00,667.019,0.90569985
1110.00,667.68897,0.8622999
1112.00,668.36038,0.8131398
1114.00,669.03167,0.77234025
1116.00,669.70288,0.72647025
1118.00,670.37392,0.6881402
1120.00,671.04454,0.64812
1122.00,671.7129,0.61318015
1124.00,672.38159,0.57282005
1126.00,673.05259,0.5396798
1128.00,673.72472,0.5066501
1130.00,674.39588,0.4789202
1132.00,675.06695,0.44599995
1134.00,675.7371,0.41861985
1136.00,676.40723,0.3876202
1138.00,677.07661,0.3649602
1140.00,677.74703,0.3376802
1142.00,678.41797,0.31467975
1144.00,679.0869,0.29044015
1146.00,679.75464,0.2711698
1148.00,680.42228,0.2513302
1150.00,681.09017,0.23260985
1152.00,681.75977,0.21401985
1154.00,682.42772,0.19597985
1156.00,683.09721,0.17648015
1158.00,683.7651,0.1613799
1160.00,684.43251,0.14525995
1162.00,685.098,0.13376
1164.00,685.76498,0.12181015
1166.00,686.43257,0.1118898
1168.00,687.09975,0.09982995
1170.00,687.76466,0.08991015
1172.00,688.42995,0.0784201
1174.00,689.09483,0.06837985
1176.00,689.76026,0.05834015
1178.00,690.42459,0.0514701
1180.00,691.08958,0.0434599
1182.00,691.75385,0.03546015
1184.00,692.4192,0.0288101
1186.00,693.08584,0.02216005
1188.00,693.75169,0.01765995
1190.00,694.41751,0.01247015
1192.00,695.08113,0.0047025
1194.00,695.74503,-0.0014025
1196.00,696.40811,-0.00612975
1198.00,697.07193,-0.01063975
1200.00,697.73498,-1.19E-02
1202.00,698.39808,-1.53E-02
1204.00,699.06159,-1.90E-02
1206.00,699.72703,-2.16E-02
1208.00,700.39264,-2.48E-02
1210.00,701.06028,-2.80E-02
1212.00,701.72316,-3.11E-02
1214.00,702.38692,-3.22E-02
1216.00,703.04813,-3.39E-02
1218.00,703.7108,-3.54E-02
1220.00,704.37264,-3.71E-02
1222.00,705.03674,-3.93E-02
1224.00,705.70166,-4.09E-02
1226.00,706.36584,-4.46E-02
1228.00,707.02877,-4.70E-02
1230.00,707.69026,-4.83E-02
1232.00,708.35075,-4.83E-02
1234.00,709.01146,-4.99E-02
1236.00,709.67331,-5.14E-02
1238.00,710.33919,-0.0524601
1240.00,711.00485,-0.0531399
1242.00,711.67149,-0.0531399
1244.00,712.33731,-0.0522302
1246.00,713.00356,-0.05132985
1248.00,713.66747,-0.0524601
1250.00,714.33193,-0.05438015
1252.00,714.99721,-0.05572985
1254.00,715.66225,-0.0567402
1256.00,716.32812,-0.0570801
1258.00,716.99344,-0.0584298
1260.00,717.65877,-0.0584298
1262.00,718.32362,-0.05978005
1264.00,718.98906,-0.0582098
1266.00,719.65893,-0.0582098
1268.00,720.32234,-0.0582098
1270.00,720.9841,-0.0568502
1272.00,721.64262,-0.0568502
1274.00,722.30707,-0.0583198
1276.00,722.97274,-0.05967005
1278.00,723.63921,-0.0610302
1280.00,724.30475,-0.05956995
1282.00,724.96793,-0.05956995
1284.00,725.63241,-0.05956995
1286.00,726.2961,-0.05956995
1288.00,726.96161,-0.05855025
1290.00,727.62756,-0.05855025
1292.00,728.29454,-0.05855025
1294.00,728.96107,-0.05855025
1296.00,729.6271,-0.05855025
1298.00,730.29195,-0.05855025
1300.00,730.95757,-0.0582098
1302.00,731.62264,-0.0582098
1304.00,732.28839,-0.0578699
1306.00,732.9549,-0.0578699
1308.00,733.62051,-0.0578699
1310.00,734.28672,-0.0578699
1312.00,734.95384,-0.05923005
1314.00,735.62397,-0.05923005
1316.00,736.29325,-0.05923005
1318.00,736.96082,-0.05923005
1320.00,737.62798,-0.05923005
1322.00,738.29644,-0.06057975
1324.00,738.96551,-0.06057975
1326.00,739.63408,-0.05866025
1328.00,740.30112,-0.0576499
1330.00,740.96708,-0.0576499
1332.00,741.63228,-0.0576499
1334.00,742.29887,-0.05923005
1336.00,742.96643,-0.06057975
1338.00,743.63329,-0.05989995
1340.00,744.30108,-0.05956005
1342.00,744.96731,-0.05922015
1344.00,745.63535,-0.05922015
1346.00,746.30169,-0.06057975
1348.00,746.96987,-0.06057975
1350.00,747.63751,-0.06193
1352.00,748.30364,-0.06193
1354.00,748.97039,-0.0584298
1356.00,749.63775,-0.05527995
1358.00,750.30489,-0.0567402
1360.00,750.97064,-0.06373015
1362.00,751.63484,-0.06485985
1364.00,752.30144,-0.0612502
1366.00,752.96654,-0.0577599
1368.00,753.6321,-0.05527995
1370.00,754.2981,-0.0568601
1372.00,754.96567,-0.06011995
1374.00,755.63307,-0.0613602
1376.00,756.2991,-0.0613602
1378.00,756.96498,-0.06023985
1380.00,757.63151,-0.05866025
1382.00,758.29818,-0.05764
1384.00,758.96401,-0.05764
1386.00,759.62946,-0.05764
1388.00,760.29613,-0.05900015
1390.00,760.96262,-0.05900015
1392.00,761.63077,-0.05900015
1394.00,762.29774,-0.05900015
1396.00,762.96472,-0.05967005
1398.00,763.62916,-0.06000995
1400.00,764.2972,-0.0609202
1402.00,764.96331,-0.0612502
1404.00,765.6311,-0.05978995
1406.00,766.2932,-0.05978995
1408.00,766.95925,-0.05978995
1410.00,767.62348,-0.05978995
1412.00,768.28907,-0.0565202
1414.00,768.95361,-0.0520102
1416.00,769.61838,-0.03600025
1418.00,770.28446,-0.04670985
1420.00,770.94964,-0.0668899
1422.00,771.61693,-0.06507985
1424.00,772.28136,-0.0715099
1426.00,772.94594,-0.0715099
1428.00,773.61315,-0.06429005
1430.00,774.28057,-0.0580998
1432.00,774.94969,-0.0531399
1434.00,775.61534,-0.05594985
1436.00,776.28161,-0.0578699
1438.00,776.94871,-0.05989995
1440.00,777.61388,-0.0671099
1442.00,778.27934,-0.06802015
1444.00,778.9436,-0.05561985
1446.00,779.60808,-0.05054005
1448.00,780.2729,-0.04953025
